%
%     Total Radiative Hydrogenic Recombination.
%      1e-3 Z^2 K  < Te < 10^9 Z^2 K
%
%     Title
%     nTemps
%     Log T  Log a_tot Log a_1
%     Total and n=1 recombination rates from NORAD 2014
%      OTS= total - (n=1) rate
%Ref: "n-shell and total recombination rate coefficients of huydrogen",
%     S.N. Nahar (1995, unpublished): These were obtained for
%     "Total electron-ion recombination for Fe III", Sultana N. Nahar,
%     Phys. Rev. A 53, 2417 (1996).
%
%     A small part of the results were published in
%    "Anisotropic line emission and the geometry of the broad-line region
%    in active galactic nuclei", G. J. Ferland, B. M. Peterson, K. Horne, W.
%    F. Welsh, and S. N. Nahar, Astrophys. J. 387, 95 (1992)
%    NOTE: Present total rates are little higher than those presented in the
%    paper since contributions from all higher levels, going up to
%    n=infinity, are included. - S.N. Nahar
%
%     Absolute emissivities for Hbeta and He 4686
%     From Storey and Hummer 1995
%
%       Title
%       ....
%       Case Title
%       Ntemps
%       Temp(K) emissivities for log(n) = 2,3,4,5,6,7,8,9,10
%       ....
%       H line wavelengths
%       HeII line wavelengths
%       gf values
%       Title
%       ....
%
Hydrogenic Recombination Data v5.2.0
NORAD Total and n=1 H-recombination
121
-3.00D+00 -8.3206175341D+00 -9.2834874941D+00
-2.90D+00 -8.3706938972D+00 -9.3334867344D+00
-2.80D+00 -8.4207688020D+00 -9.3834860239D+00
-2.70D+00 -8.4708553739D+00 -9.4334849205D+00
-2.60D+00 -8.5209664593D+00 -9.4834830584D+00
-2.50D+00 -8.5711116569D+00 -9.5334809545D+00
-2.40D+00 -8.6212984701D+00 -9.5834796956D+00
-2.30D+00 -8.6715343930D+00 -9.6334803640D+00
-2.20D+00 -8.7218284450D+00 -9.6834832010D+00
-2.10D+00 -8.7721920099D+00 -9.7334871448D+00
-2.00D+00 -8.8226366752D+00 -9.7834910218D+00
-1.90D+00 -8.8731765313D+00 -9.8334938455D+00
-1.80D+00 -8.9238356815D+00 -9.8834953792D+00
-1.70D+00 -8.9746407320D+00 -9.9334955739D+00
-1.60D+00 -9.0256183652D+00 -9.9834944124D+00
-1.50D+00 -9.0767961424D+00 -1.0033492251D+01
-1.40D+00 -9.1282021925D+00 -1.0083489686D+01
-1.30D+00 -9.1798646484D+00 -1.0133487319D+01
-1.20D+00 -9.2318113283D+00 -1.0183485756D+01
-1.10D+00 -9.2840695620D+00 -1.0233485610D+01
-1.00D+00 -9.3366666376D+00 -1.0283487494D+01
-9.00D-01 -9.3896268289D+00 -1.0333491161D+01
-8.00D-01 -9.4429623541D+00 -1.0383492913D+01
-7.00D-01 -9.4966824175D+00 -1.0433488190D+01
-6.00D-01 -9.5507954535D+00 -1.0483473537D+01
-5.00D-01 -9.6053009483D+00 -1.0533458341D+01
-4.00D-01 -9.6601926146D+00 -1.0583460271D+01
-3.00D-01 -9.7154639681D+00 -1.0633496632D+01
-2.00D-01 -9.7711024600D+00 -1.0683554465D+01
-1.00D-01 -9.8270861417D+00 -1.0733573896D+01
 0.00D+00 -9.8833922560D+00 -1.0783491022D+01
 1.00D-01 -9.9400421495D+00 -1.0833478821D+01
 2.00D-01 -9.9969763996D+00 -1.0883487908D+01
 3.00D-01 -1.0054193181D+01 -1.0933477104D+01
 4.00D-01 -1.0111694320D+01 -1.0983471158D+01
 5.00D-01 -1.0169458962D+01 -1.1033492763D+01
 6.00D-01 -1.0227469954D+01 -1.1083496838D+01
 7.00D-01 -1.0285729605D+01 -1.1133496344D+01
 8.00D-01 -1.0344227993D+01 -1.1183499422D+01
 9.00D-01 -1.0402957926D+01 -1.1233500232D+01
 1.00D+00 -1.0461916632D+01 -1.1283504178D+01
 1.10D+00 -1.0521116196D+01 -1.1333510100D+01
 1.20D+00 -1.0580539927D+01 -1.1383513983D+01
 1.30D+00 -1.0640202449D+01 -1.1433527153D+01
 1.40D+00 -1.0700100640D+01 -1.1483530734D+01
 1.50D+00 -1.0760250190D+01 -1.1533547604D+01
 1.60D+00 -1.0820649318D+01 -1.1583559214D+01
 1.70D+00 -1.0881305492D+01 -1.1633577043D+01
 1.80D+00 -1.0942219823D+01 -1.1683610249D+01
 1.90D+00 -1.1003392023D+01 -1.1733627169D+01
 2.00D+00 -1.1064860680D+01 -1.1783675721D+01
 2.10D+00 -1.1126627077D+01 -1.1833717933D+01
 2.20D+00 -1.1188699866D+01 -1.1883790874D+01
 2.30D+00 -1.1251091332D+01 -1.1933860507D+01
 2.40D+00 -1.1313819711D+01 -1.1983970037D+01
 2.50D+00 -1.1376885155D+01 -1.2034074294D+01
 2.60D+00 -1.1440332722D+01 -1.2084225662D+01
 2.70D+00 -1.1504164380D+01 -1.2134416374D+01
 2.80D+00 -1.1568395028D+01 -1.2184654734D+01
 2.90D+00 -1.1633054336D+01 -1.2234957638D+01
 3.00D+00 -1.1698145628D+01 -1.2285335007D+01
 3.10D+00 -1.1763714723D+01 -1.2335809474D+01
 3.20D+00 -1.1829796977D+01 -1.2386401282D+01
 3.30D+00 -1.1896401506D+01 -1.2437148267D+01
 3.40D+00 -1.1963570734D+01 -1.2488076552D+01
 3.50D+00 -1.2031306960D+01 -1.2539237426D+01
 3.60D+00 -1.2099687503D+01 -1.2590692576D+01
 3.70D+00 -1.2168738280D+01 -1.2642503478D+01
 3.80D+00 -1.2238508178D+01 -1.2694756142D+01
 3.90D+00 -1.2309042357D+01 -1.2747535339D+01
 4.00D+00 -1.2380405849D+01 -1.2800985729D+01
 4.10D+00 -1.2452643797D+01 -1.2855207922D+01
 4.20D+00 -1.2525842034D+01 -1.2910377448D+01
 4.30D+00 -1.2600084110D+01 -1.2966696899D+01
 4.40D+00 -1.2675450052D+01 -1.3024333874D+01
 4.50D+00 -1.2752051271D+01 -1.3083524995D+01
 4.60D+00 -1.2830031826D+01 -1.3144511131D+01
 4.70D+00 -1.2909459800D+01 -1.3207531265D+01
 4.80D+00 -1.2990506612D+01 -1.3272833016D+01
 4.90D+00 -1.3073318072D+01 -1.3340654364D+01
 5.00D+00 -1.3158046441D+01 -1.3411224244D+01
 5.10D+00 -1.3244819046D+01 -1.3484735655D+01
 5.20D+00 -1.3333800369D+01 -1.3561378552D+01
 5.30D+00 -1.3425332234D+01 -1.3641456044D+01
 5.40D+00 -1.3519016275D+01 -1.3724573463D+01
 5.50D+00 -1.3615413639D+01 -1.3811268329D+01
 5.60D+00 -1.3714375189D+01 -1.3901425490D+01
 5.70D+00 -1.3815876646D+01 -1.3995034113D+01
 5.80D+00 -1.3920131665D+01 -1.4092072952D+01
 5.90D+00 -1.4027056992D+01 -1.4192478502D+01
 6.00D+00 -1.4136492753D+01 -1.4296149988D+01
 6.10D+00 -1.4248513039D+01 -1.4402985303D+01
 6.20D+00 -1.4363161199D+01 -1.4512861625D+01
 6.30D+00 -1.4480093289D+01 -1.4625654984D+01
 6.40D+00 -1.4599358414D+01 -1.4741219093D+01
 6.50D+00 -1.4720835157D+01 -1.4859397692D+01
 6.60D+00 -1.4844451423D+01 -1.4980094800D+01
 6.70D+00 -1.4970048358D+01 -1.5103093666D+01
 6.80D+00 -1.5097513015D+01 -1.5228287613D+01
 6.90D+00 -1.5226776895D+01 -1.5355531868D+01
 7.00D+00 -1.5357683897D+01 -1.5484682621D+01
 7.10D+00 -1.5490488338D+01 -1.5615610740D+01
 7.20D+00 -1.5624427826D+01 -1.5748167181D+01
 7.30D+00 -1.5759700418D+01 -1.5882264821D+01
 7.40D+00 -1.5896196279D+01 -1.6017778533D+01
 7.50D+00 -1.6033797236D+01 -1.6154585661D+01
 7.60D+00 -1.6172792325D+01 -1.6292583131D+01
 7.70D+00 -1.6312783272D+01 -1.6431680915D+01
 7.80D+00 -1.6453679476D+01 -1.6571784188D+01
 7.90D+00 -1.6595439941D+01 -1.6712825540D+01
 8.00D+00 -1.6737952541D+01 -1.6854710341D+01
 8.10D+00 -1.6881173337D+01 -1.6997358851D+01
 8.20D+00 -1.7025032606D+01 -1.7140699548D+01
 8.30D+00 -1.7169488318D+01 -1.7284698776D+01
 8.40D+00 -1.7314473223D+01 -1.7429270307D+01
 8.50D+00 -1.7459945958D+01 -1.7574384275D+01
 8.60D+00 -1.7605881172D+01 -1.7719991047D+01
 8.70D+00 -1.7752198522D+01 -1.7866014254D+01
 8.80D+00 -1.7898871824D+01 -1.8012436512D+01
 8.90D+00 -1.8045911934D+01 -1.8159222899D+01
 9.00D+00 -1.8193230058D+01 -1.8306334595D+01
Hydrogenic emissivities for Hydrogen and Helium
Density Grid
 9
 1.00D+02 1.00D+03 1.00D+04 1.00D+05 1.00D+06 1.00D+07 1.00D+08 1.00D+09 1.00D+10
Case A H Beta Emissivity
 12
5.00D+02 8.58200D-25 8.90800D-25 9.43300D-25 1.02800D-24 1.17400D-24 1.43900D-24 1.99800D-24 3.49300D-24 8.90700D-24
1.00D+03 5.30000D-25 5.39200D-25 5.53600D-25 5.75700D-25 6.10300D-25 6.66800D-25 7.72200D-25 1.03600D-24 1.83800D-24
3.00D+03 2.33000D-25 2.33800D-25 2.35000D-25 2.36400D-25 2.38100D-25 2.39400D-25 2.39900D-25 2.52700D-25 3.12300D-25
5.00D+03 1.53000D-25 1.53200D-25 1.53400D-25 1.53400D-25 1.53100D-25 1.51800D-25 1.47600D-25 1.46500D-25 1.63900D-25
7.50D+03 1.07300D-25 1.07300D-25 1.07300D-25 1.07100D-25 1.06500D-25 1.05000D-25 1.00700D-25 9.68100D-26 1.02500D-25
1.00D+04 8.24500D-26 8.24300D-26 8.23500D-26 8.21300D-26 8.16200D-26 8.03000D-26 7.65900D-26 7.23700D-26 7.43900D-26
1.25D+04 6.67500D-26 6.67200D-26 6.66400D-26 6.64500D-26 6.60100D-26 6.49000D-26 6.17200D-26 5.77100D-26 5.82600D-26
1.50D+04 5.59200D-26 5.58900D-26 5.58200D-26 5.56500D-26 5.52900D-26 5.43600D-26 5.16000D-26 4.79000D-26 4.77700D-26
2.00D+04 4.19700D-26 4.19400D-26 4.18900D-26 4.17700D-26 4.15000D-26 4.08200D-26 3.87000D-26 3.55800D-26 3.49500D-26
3.00D+04 2.75800D-26 2.75700D-26 2.75300D-26 2.74600D-26 2.73100D-26 2.69000D-26 2.54900D-26 2.31600D-26 2.24300D-26
1.00D+05 7.36129D-27 7.35862D-27 7.34794D-27 7.32926D-27 7.28922D-27 7.17979D-27 6.80345D-27 6.18156D-27 5.98672D-27
1.00D+06 3.93162D-28 3.93019D-28 3.92449D-28 3.91451D-28 3.89313D-28 3.83468D-28 3.63368D-28 3.30153D-28 3.19747D-28
Case B H Beta Emissivity
 12
5.00D+02 1.14100D-24 1.19700D-24 1.29300D-24 1.45600D-24 1.75300D-24 2.35100D-24 3.81100D-24 8.00000D-24 2.30200D-23
1.00D+03 7.14400D-25 7.32300D-25 7.62300D-25 8.12200D-25 8.97300D-25 1.05500D-24 1.40100D-24 2.22700D-24 4.41500D-24
3.00D+03 3.26500D-25 3.29000D-25 3.33100D-25 3.39900D-25 3.51200D-25 3.71200D-25 4.14200D-25 5.04900D-25 6.82600D-25
5.00D+03 2.19900D-25 2.20800D-25 2.22400D-25 2.24800D-25 2.28900D-25 2.36200D-25 2.52900D-25 2.87300D-25 3.47300D-25
7.50D+03 1.57900D-25 1.58300D-25 1.58900D-25 1.60000D-25 1.61700D-25 1.64800D-25 1.72600D-25 1.88600D-25 2.13100D-25
1.00D+04 1.23500D-25 1.23700D-25 1.24000D-25 1.24600D-25 1.25500D-25 1.27200D-25 1.31700D-25 1.40900D-25 1.53200D-25
1.25D+04 1.01400D-25 1.01500D-25 1.01700D-25 1.02100D-25 1.02600D-25 1.03600D-25 1.06500D-25 1.12500D-25 1.19300D-25
1.50D+04 8.60000D-26 8.60700D-26 8.62100D-26 8.64200D-26 8.67500D-26 8.74000D-26 8.94700D-26 9.36800D-26 9.75300D-26
2.00D+04 6.57900D-26 6.58300D-26 6.58900D-26 6.59900D-26 6.61400D-26 6.64500D-26 6.76400D-26 7.00500D-26 7.11400D-26
3.00D+04 4.44000D-26 4.44100D-26 4.44300D-26 4.44600D-26 4.44900D-26 4.45800D-26 4.51200D-26 4.62400D-26 4.56800D-26
1.00D+05 1.27804D-26 1.27833D-26 1.27920D-26 1.28092D-26 1.28352D-26 1.28872D-26 1.30962D-26 1.36389D-26 1.40321D-26
1.00D+06 7.85162D-28 7.85339D-28 7.85870D-28 7.86931D-28 7.88527D-28 7.91723D-28 8.04562D-28 8.37904D-28 8.62060D-28
Case A 4686 emissivity
 12
 5.00D+02 2.184D-23 2.185D-23 2.203D-23 2.269D-23 2.454D-23 2.919D-23 4.098D-23 7.460D-23 1.962D-22
 1.00D+03 1.234D-23 1.222D-23 1.207D-23 1.193D-23 1.195D-23 1.242D-23 1.401D-23 1.835D-23 3.052D-23
 3.00D+03 4.686D-24 4.632D-24 4.549D-24 4.427D-24 4.267D-24 4.089D-24 3.947D-24 3.948D-24 4.277D-24
 5.00D+03 2.882D-24 2.854D-24 2.808D-24 2.737D-24 2.635D-24 2.505D-24 2.363D-24 2.243D-24 2.199D-24
 7.50D+03 1.924D-24 1.908D-24 1.881D-24 1.838D-24 1.774D-24 1.687D-24 1.582D-24 1.472D-24 1.377D-24
 1.00D+04 1.430D-24 1.419D-24 1.401D-24 1.372D-24 1.328D-24 1.266D-24 1.187D-24 1.098D-24 1.006D-24
 1.25D+04 1.129D-24 1.121D-24 1.108D-24 1.087D-24 1.055D-24 1.009D-24 9.473D-25 8.745D-25 7.936D-25
 1.50D+04 9.271D-25 9.213D-25 9.116D-25 8.957D-25 8.708D-25 8.344D-25 7.855D-25 7.255D-25 6.551D-25
 2.00D+04 6.747D-25 6.711D-25 6.649D-25 6.548D-25 6.386D-25 6.145D-25 5.812D-25 5.384D-25 4.846D-25
 3.00D+04 4.251D-25 4.232D-25 4.201D-25 4.149D-25 4.064D-25 3.935D-25 3.750D-25 3.500D-25 3.156D-25
 5.00D+04 2.324D-25 2.316D-25 2.304D-25 2.282D-25 2.247D-25 2.191D-25 2.110D-25 1.992D-25 1.813D-25
 1.00D+05 9.912D-26 9.891D-26 9.856D-26 9.797D-26 9.699D-26 9.541D-26 9.300D-26 8.926D-26 8.253D-26
Case B 4686 emissivity
 12
 5.00D+02 2.252D-23 2.271D-23 2.318D-23 2.437D-23 2.721D-23 3.393D-23 5.109D-23 1.030D-22 3.154D-22
 1.00D+03 1.274D-23 1.268D-23 1.264D-23 1.269D-23 1.303D-23 1.407D-23 1.682D-23 2.408D-23 4.620D-23
 3.00D+03 4.872D-24 4.833D-24 4.775D-24 4.695D-24 4.602D-24 4.528D-24 4.559D-24 4.879D-24 5.942D-24
 5.00D+03 3.016D-24 2.995D-24 2.962D-24 2.912D-24 2.844D-24 2.765D-24 2.705D-24 2.724D-24 2.967D-24
 7.50D+03 2.028D-24 2.016D-24 1.996D-24 1.965D-24 1.921D-24 1.864D-24 1.805D-24 1.771D-24 1.824D-24
 1.00D+04 1.516D-24 1.508D-24 1.495D-24 1.475D-24 1.444D-24 1.402D-24 1.355D-24 1.316D-24 1.320D-24
 1.25D+04 1.203D-24 1.198D-24 1.189D-24 1.174D-24 1.151D-24 1.120D-24 1.082D-24 1.047D-24 1.036D-24
 1.50D+04 9.932D-25 9.891D-25 9.822D-25 9.710D-25 9.537D-25 9.293D-25 8.988D-25 8.680D-25 8.519D-25
 2.00D+04 7.292D-25 7.266D-25 7.224D-25 7.154D-25 7.044D-25 6.885D-25 6.677D-25 6.449D-25 6.280D-25
 3.00D+04 4.661D-25 4.649D-25 4.628D-25 4.594D-25 4.539D-25 4.457D-25 4.346D-25 4.212D-25 4.088D-25
 5.00D+04 2.604D-25 2.600D-25 2.592D-25 2.579D-25 2.559D-25 2.527D-25 2.482D-25 2.424D-25 2.361D-25
 1.00D+05 1.150D-25 1.149D-25 1.148D-25 1.145D-25 1.141D-25 1.134D-25 1.124D-25 1.111D-25 1.092D-25
Hydrogen Wavelengths (Ritz vac from NIST ASD levels)
 15 6
 1215.6701D+00 6564.6322D+00 18756.0957D+00 40522.6941D+00 74598.4125D+00 123719.090D+00
 1025.7220D+00 4862.6907D+00 12821.5764D+00 26258.6831D+00 46537.7367D+00 75025.0190D+00
  972.5365D+00 4341.6913D+00 10941.0817D+00 21661.2122D+00 37405.5538D+00 59082.1982D+00
  949.7429D+00 4102.8991D+00 10052.1235D+00 19450.8905D+00 32969.9137D+00 51286.6171D+00
  937.8033D+00 3971.2020D+00  9548.5878D+00 18179.1035D+00 30392.0191D+00 46725.1204D+00
  930.7481D+00 3890.1577D+00  9231.5464D+00 17366.8684D+00 28729.9564D+00 43764.5802D+00
  926.2256D+00 3836.4789D+00  9017.3842D+00 16811.1289D+00 27582.6771D+00 41707.9715D+00
  923.1503D+00 3798.9827D+00  8865.2164D+00 16411.6922D+00 26751.3128D+00 40208.7057D+00
  920.9630D+00 3771.7081D+00  8752.8755D+00 16113.7312D+00 26126.4777D+00 39075.5155D+00
  919.3513D+00 3751.2244D+00  8667.3985D+00 15884.8975D+00 25643.2717D+00 38194.5410D+00
  918.1293D+00 3735.4365D+00  8600.7539D+00 15704.9692D+00 25260.9054D+00 37493.9621D+00
  917.1805D+00 3723.0035D+00  8547.7308D+00 15560.7165D+00 24952.5452D+00 36926.3633D+00
  916.4291D+00 3713.0334D+00  8504.8193D+00 15443.1564D+00 24699.8755D+00 36459.2604D+00
  915.8238D+00 3704.9132D+00  8469.5805D+00 15345.9992D+00 24490.0048D+00 36069.7076D+00
  915.3289D+00 3698.2103D+00  8440.2741D+00 15264.7251D+00 24313.6228D+00 35741.0724D+00
He II Wavelengths (Ritz vac)
 15 6
  303.782D+00 1640.417D+00 4687.013D+00 10126.367D+00 18641.831D+00 30916.966D+00
  256.317D+00 1215.131D+00 3204.023D+00  6561.899D+00 11629.597D+00 18748.465D+00
  243.026D+00 1084.942D+00 2734.105D+00  5413.025D+00  9347.498D+00 14764.419D+00
  237.331D+00 1025.272D+00 2511.963D+00  4860.678D+00  8239.051D+00 12816.356D+00
  234.347D+00  992.363D+00 2386.133D+00  4542.867D+00  7594.854D+00 11676.446D+00
  232.584D+00  972.111D+00 2306.907D+00  4339.897D+00  7179.509D+00 10936.623D+00
  231.454D+00  958.698D+00 2253.391D+00  4201.021D+00  6892.811D+00 10422.681D+00
  230.686D+00  949.328D+00 2215.365D+00  4101.205D+00  6685.055D+00 10048.030D+00
  230.139D+00  942.512D+00 2187.292D+00  4026.746D+00  6528.915D+00  9764.843D+00
  229.736D+00  937.394D+00 2165.932D+00  3969.563D+00  6408.161D+00  9544.699D+00
  229.431D+00  933.449D+00 2149.279D+00  3924.599D+00  6312.613D+00  9369.621D+00
  229.194D+00  930.342D+00 2136.028D+00  3888.553D+00  6235.553D+00  9227.782D+00
  229.006D+00  927.851D+00 2125.305D+00  3859.174D+00  6172.413D+00  9111.053D+00
  228.855D+00  925.822D+00 2116.499D+00  3834.895D+00  6119.966D+00  9013.711D+00
  228.731D+00  924.147D+00 2109.176D+00  3814.585D+00  6075.892D+00  8931.586D+00
Hydrogenic gf values NIST ASD
 15 6
 8.3282D-01 5.1286D+00 1.5166D+01 3.3225D+01 6.1594D+01 1.0256D+02
 1.5829D-01 9.5508D-01 2.7119D+00 5.7390D+00 1.0350D+01 1.6853D+01
 5.8012D-02 3.5755D-01 1.0057D+00 2.0967D+00 3.7252D+00 5.9878D+00
 2.7891D-02 1.7684D-01 4.9860D-01 1.0339D+00 1.8233D+00 2.9078D+00
 1.5607D-02 1.0169D-01 2.8878D-01 5.9865D-01 1.0522D+00 1.6706D+00
 9.6327D-03 6.4318D-02 1.8430D-01 3.8292D-01 6.7248D-01 1.0652D+00
 6.3700D-03 4.3454D-02 1.2570D-01 2.6211D-01 4.6062D-01 7.2895D-01
 4.4345D-03 3.0821D-02 8.9979D-02 1.8844D-01 3.3169D-01 5.2496D-01
 3.2123D-03 2.2694D-02 6.6839D-02 1.4062D-01 2.4806D-01 3.9290D-01
 2.4023D-03 1.7216D-02 5.1123D-02 1.0806D-01 1.9110D-01 3.0304D-01
 1.8438D-03 1.3383D-02 4.0043D-02 8.5032D-02 1.5078D-01 2.3944D-01
 1.4462D-03 1.0615D-02 3.1989D-02 6.8231D-02 1.2132D-01 1.9298D-01
 1.1554D-03 8.5662D-03 2.5983D-02 5.5658D-02 9.9243D-02 1.5814D-01
 9.3771D-04 7.0152D-03 2.1408D-02 4.6045D-02 8.2327D-02 1.3142D-01
 7.7154D-04 5.8190D-03 1.7857D-02 3.8558D-02 6.9126D-02 1.1207D-01
Hydrogen Energy Levels (NIST ASD , currently unused)
 21
 01      0.00000
 02  82259.15800
 03  97492.30400
 04 102823.90400
 05 105291.65700
 06 106632.16810
 07 107440.45080
 08 107965.05680
 09 108324.72530
 10 108581.99450
 11 108772.34450
 12 108917.12090
 13 109029.79130
 14 109119.19170
 15 109191.31540
 16 109250.34330
 17 109299.26420
 18 109340.26040
 19 109374.95550
 20 109404.57760
 21 109430.06960
 HeII Energy Levels (Scaled RHeii(1-1/n^2) RHeii=438908.8785, NIST ASD)
 21
  01     0.000
 02 329181.659
 03 390141.225
 04 411477.074
 05 421352.523
 06 426716.965
 07 429951.554
 08 432050.927
 09 433490.250
 10 434519.790
 11 435281.532
 12 435860.900
 13 436311.785
 14 436669.547
 15 436958.172
 16 437194.391
 17 437390.163
 18 437554.221
 19 437693.064
 20 437811.606
 21 437913.620
